OOIBase32 Version 1.0.1.6 Data File
++++++++++++++++++++++++++++++++++++
Date: Monday, July 03, 2017, 07:30:30
User: Valued Ocean Optics Customer
Spectrometer Serial Number: USB2E2859
Spectrometer Channel: Master
Integration Time (msec): 8
Spectra Averaged: 10
Boxcar Smoothing: 0
Correct for Electrical Dark: Disabled
Time Normalized: Disabled
Dual-beam Reference: Disabled
Reference Channel: Master
>>>>>Begin Spectral Data<<<<<
339.95	0.000
340.32	166.200
340.70	167.300
341.08	169.600
341.45	169.300
341.83	169.400
342.21	170.100
342.58	172.400
342.96	171.000
343.34	170.400
343.71	171.400
344.09	171.700
344.46	172.100
344.84	171.000
345.22	171.100
345.59	171.600
345.97	171.200
346.34	172.200
346.72	170.800
347.10	170.900
347.47	170.600
347.85	171.500
348.22	171.200
348.60	171.700
348.98	170.700
349.35	170.900
349.73	171.200
350.10	172.400
350.48	171.100
350.85	172.200
351.23	172.000
351.60	171.800
351.98	171.000
352.35	171.100
352.73	171.300
353.11	173.100
353.48	172.500
353.86	171.900
354.23	171.000
354.61	171.000
354.98	172.000
355.36	172.500
355.73	171.800
356.11	173.300
356.48	170.900
356.86	172.500
357.23	170.800
357.61	171.100
357.98	173.500
358.36	173.300
358.73	170.900
359.10	172.900
359.48	171.200
359.85	174.400
360.23	172.800
360.60	171.000
360.98	172.500
361.35	172.100
361.73	173.100
362.10	173.900
362.48	171.600
362.85	172.900
363.22	172.500
363.60	171.700
363.97	171.800
364.35	172.800
364.72	173.200
365.09	173.400
365.47	172.800
365.84	172.800
366.22	174.600
366.59	172.900
366.96	171.800
367.34	172.400
367.71	173.500
368.09	173.400
368.46	173.000
368.83	171.900
369.21	172.100
369.58	172.900
369.95	171.600
370.33	172.600
370.70	173.700
371.07	173.300
371.45	173.800
371.82	173.100
372.19	173.400
372.57	174.200
372.94	173.400
373.31	174.500
373.69	173.100
374.06	172.600
374.43	174.500
374.81	172.800
375.18	173.700
375.55	172.300
375.93	173.400
376.30	172.500
376.67	173.000
377.04	172.900
377.42	173.000
377.79	172.900
378.16	174.800
378.54	173.400
378.91	173.100
379.28	172.700
379.65	174.100
380.03	174.200
380.40	173.500
380.77	173.500
381.14	172.600
381.52	174.600
381.89	174.800
382.26	173.000
382.63	172.200
383.00	173.000
383.38	173.000
383.75	174.100
384.12	173.900
384.49	174.700
384.86	173.600
385.24	172.900
385.61	175.200
385.98	173.900
386.35	173.700
386.72	172.400
387.10	173.300
387.47	173.000
387.84	173.500
388.21	173.400
388.58	172.800
388.95	175.200
389.33	172.800
389.70	173.500
390.07	174.200
390.44	173.900
390.81	173.700
391.18	173.800
391.55	173.500
391.93	172.400
392.30	174.000
392.67	174.300
393.04	173.600
393.41	173.900
393.78	174.000
394.15	175.600
394.52	174.400
394.89	174.400
395.27	174.200
395.64	174.800
396.01	172.700
396.38	172.500
396.75	173.800
397.12	173.700
397.49	174.200
397.86	173.300
398.23	174.800
398.60	174.100
398.97	176.200
399.34	174.100
399.71	174.500
400.08	174.000
400.45	173.100
400.82	174.700
401.19	172.900
401.56	173.500
401.93	174.600
402.31	174.100
402.68	172.800
403.05	174.300
403.42	175.100
403.79	174.600
404.16	173.700
404.53	173.900
404.90	174.300
405.27	174.400
405.63	173.500
406.00	173.900
406.37	174.800
406.74	174.500
407.11	173.500
407.48	174.200
407.85	174.600
408.22	174.300
408.59	174.500
408.96	173.400
409.33	173.600
409.70	174.600
410.07	175.300
410.44	174.500
410.81	174.000
411.18	173.800
411.55	173.200
411.92	175.400
412.28	173.600
412.65	174.900
413.02	172.600
413.39	174.700
413.76	175.200
414.13	172.500
414.50	172.200
414.87	174.600
415.24	174.100
415.60	174.700
415.97	175.100
416.34	173.600
416.71	174.200
417.08	174.100
417.45	174.900
417.82	174.700
418.18	174.200
418.55	174.400
418.92	174.300
419.29	174.100
419.66	174.600
420.03	172.900
420.39	175.800
420.76	174.300
421.13	172.300
421.50	174.900
421.87	174.900
422.23	174.000
422.60	174.800
422.97	175.100
423.34	173.600
423.71	172.900
424.07	171.500
424.44	173.800
424.81	174.900
425.18	173.300
425.55	173.700
425.91	173.400
426.28	175.200
426.65	173.800
427.02	174.100
427.38	172.800
427.75	173.400
428.12	173.800
428.48	174.000
428.85	175.400
429.22	174.200
429.59	173.400
429.95	174.100
430.32	174.500
430.69	173.000
431.05	173.400
431.42	174.700
431.79	172.400
432.16	173.300
432.52	173.300
432.89	173.700
433.26	171.800
433.62	173.500
433.99	173.700
434.36	175.400
434.72	174.700
435.09	174.300
435.46	175.300
435.82	176.100
436.19	175.800
436.56	175.800
436.92	175.200
437.29	174.400
437.65	174.800
438.02	175.200
438.39	175.100
438.75	174.700
439.12	173.400
439.49	174.800
439.85	171.800
440.22	173.100
440.58	173.100
440.95	175.000
441.32	173.700
441.68	174.800
442.05	174.000
442.41	173.700
442.78	175.300
443.14	173.400
443.51	174.200
443.88	174.200
444.24	174.200
444.61	173.300
444.97	175.200
445.34	173.900
445.70	175.100
446.07	174.900
446.43	174.800
446.80	174.600
447.16	173.800
447.53	174.300
447.89	174.400
448.26	173.200
448.62	173.800
448.99	174.800
449.35	174.900
449.72	174.000
450.08	174.400
450.45	173.400
450.81	174.100
451.18	175.500
451.54	174.400
451.91	173.300
452.27	172.900
452.64	174.800
453.00	175.000
453.37	174.500
453.73	173.900
454.10	174.900
454.46	173.600
454.82	173.900
455.19	172.100
455.55	173.600
455.92	174.300
456.28	173.900
456.65	174.300
457.01	175.000
457.37	173.900
457.74	172.400
458.10	174.300
458.47	172.400
458.83	175.800
459.19	173.300
459.56	175.400
459.92	174.100
460.28	173.000
460.65	173.500
461.01	173.700
461.38	174.700
461.74	173.500
462.10	173.100
462.47	173.800
462.83	176.100
463.19	175.200
463.56	174.000
463.92	173.200
464.28	173.800
464.65	174.500
465.01	174.000
465.37	174.600
465.74	174.000
466.10	173.900
466.46	173.600
466.83	174.000
467.19	175.600
467.55	173.800
467.91	173.300
468.28	173.400
468.64	174.500
469.00	173.300
469.36	172.700
469.73	173.500
470.09	173.600
470.45	173.700
470.82	175.200
471.18	173.700
471.54	172.500
471.90	174.900
472.26	174.600
472.63	173.500
472.99	173.400
473.35	175.400
473.71	174.800
474.08	172.700
474.44	173.800
474.80	172.900
475.16	174.500
475.52	171.700
475.89	174.000
476.25	173.500
476.61	174.400
476.97	175.400
477.33	174.000
477.70	174.500
478.06	173.600
478.42	173.100
478.78	174.600
479.14	174.000
479.50	174.200
479.86	173.500
480.23	173.700
480.59	173.800
480.95	174.500
481.31	174.100
481.67	174.200
482.03	174.200
482.39	174.500
482.75	173.700
483.12	174.800
483.48	174.300
483.84	173.100
484.20	173.400
484.56	173.100
484.92	174.900
485.28	173.700
485.64	174.300
486.00	173.800
486.36	174.200
486.72	174.100
487.08	173.900
487.45	173.200
487.81	171.600
488.17	174.700
488.53	174.500
488.89	174.400
489.25	175.400
489.61	174.600
489.97	174.900
490.33	174.300
490.69	173.000
491.05	173.800
491.41	174.700
491.77	173.400
492.13	174.800
492.49	175.600
492.85	173.800
493.21	173.800
493.57	173.000
493.93	173.500
494.29	174.800
494.65	173.700
495.01	173.600
495.37	173.500
495.73	174.500
496.09	173.100
496.45	174.200
496.81	174.900
497.16	173.400
497.52	174.200
497.88	172.800
498.24	175.400
498.60	173.100
498.96	173.600
499.32	172.300
499.68	173.500
500.04	175.000
500.40	173.800
500.76	174.000
501.12	172.700
501.47	173.500
501.83	172.900
502.19	173.800
502.55	173.900
502.91	173.900
503.27	174.200
503.63	175.100
503.99	172.800
504.34	172.700
504.70	174.900
505.06	173.400
505.42	175.400
505.78	173.300
506.14	173.000
506.49	175.000
506.85	173.300
507.21	175.200
507.57	172.500
507.93	173.600
508.29	173.400
508.64	173.900
509.00	175.200
509.36	174.400
509.72	174.900
510.08	173.400
510.43	173.900
510.79	173.800
511.15	175.300
511.51	174.100
511.86	174.000
512.22	172.800
512.58	174.300
512.94	173.200
513.29	173.400
513.65	174.500
514.01	172.300
514.37	172.600
514.72	174.400
515.08	173.900
515.44	172.300
515.79	173.500
516.15	173.100
516.51	173.700
516.87	173.600
517.22	174.200
517.58	173.700
517.94	174.300
518.29	173.600
518.65	172.300
519.01	173.000
519.36	173.700
519.72	172.900
520.08	173.900
520.43	173.300
520.79	172.800
521.15	173.200
521.50	174.600
521.86	175.500
522.22	174.400
522.57	173.000
522.93	172.600
523.29	172.500
523.64	173.400
524.00	172.100
524.35	174.200
524.71	173.800
525.07	173.700
525.42	174.700
525.78	173.800
526.13	174.300
526.49	174.000
526.84	173.500
527.20	174.000
527.56	173.300
527.91	172.500
528.27	172.100
528.62	174.100
528.98	173.600
529.33	172.900
529.69	173.900
530.05	173.800
530.40	174.100
530.76	174.400
531.11	174.100
531.47	173.200
531.82	173.600
532.18	174.700
532.53	174.200
532.89	172.700
533.24	174.800
533.60	174.100
533.95	174.000
534.31	172.500
534.66	174.100
535.02	173.400
535.37	172.500
535.73	173.500
536.08	172.300
536.43	174.400
536.79	173.500
537.14	173.500
537.50	174.800
537.85	174.300
538.21	174.500
538.56	173.500
538.92	174.000
539.27	173.600
539.62	172.900
539.98	172.600
540.33	173.600
540.69	173.600
541.04	174.900
541.39	175.500
541.75	174.700
542.10	176.100
542.46	175.100
542.81	176.200
543.16	175.600
543.52	176.400
543.87	176.100
544.22	175.900
544.58	176.400
544.93	176.400
545.29	175.700
545.64	176.100
545.99	175.000
546.35	175.400
546.70	175.000
547.05	175.100
547.41	173.700
547.76	174.000
548.11	174.800
548.46	174.300
548.82	174.100
549.17	173.200
549.52	174.200
549.88	174.800
550.23	174.100
550.58	174.700
550.93	173.000
551.29	173.500
551.64	174.200
551.99	174.400
552.35	174.700
552.70	174.700
553.05	173.500
553.40	173.700
553.76	175.700
554.11	172.700
554.46	173.300
554.81	173.400
555.16	174.700
555.52	173.800
555.87	173.300
556.22	174.400
556.57	173.400
556.92	172.500
557.28	174.700
557.63	172.500
557.98	172.000
558.33	173.300
558.68	174.700
559.04	174.000
559.39	171.400
559.74	173.300
560.09	170.900
560.44	172.800
560.79	173.600
561.15	173.100
561.50	173.000
561.85	172.100
562.20	172.500
562.55	173.500
562.90	174.900
563.25	174.000
563.60	173.500
563.96	172.400
564.31	172.700
564.66	172.900
565.01	174.500
565.36	173.400
565.71	173.300
566.06	173.100
566.41	172.500
566.76	173.200
567.11	172.200
567.46	173.000
567.81	174.800
568.16	173.100
568.52	173.200
568.87	171.600
569.22	172.300
569.57	173.500
569.92	173.500
570.27	173.800
570.62	173.800
570.97	174.800
571.32	172.800
571.67	173.400
572.02	173.200
572.37	173.700
572.72	172.700
573.07	174.400
573.42	172.600
573.77	172.700
574.12	173.300
574.47	172.500
574.82	173.200
575.17	173.300
575.52	172.100
575.87	173.900
576.21	174.300
576.56	174.800
576.91	173.300
577.26	173.700
577.61	173.500
577.96	173.100
578.31	173.100
578.66	174.200
579.01	174.000
579.36	172.100
579.71	174.600
580.06	174.400
580.40	173.900
580.75	174.200
581.10	173.100
581.45	172.900
581.80	171.700
582.15	173.600
582.50	173.800
582.85	173.700
583.19	172.600
583.54	174.700
583.89	172.300
584.24	173.000
584.59	174.000
584.94	174.100
585.29	173.500
585.63	173.800
585.98	173.400
586.33	174.200
586.68	175.700
587.03	173.700
587.37	174.200
587.72	174.300
588.07	176.100
588.42	173.600
588.77	172.800
589.11	172.400
589.46	172.500
589.81	173.100
590.16	173.500
590.50	173.700
590.85	173.600
591.20	174.000
591.55	173.000
591.89	173.300
592.24	173.700
592.59	173.200
592.94	172.900
593.28	172.300
593.63	173.700
593.98	173.900
594.32	173.000
594.67	172.600
595.02	173.100
595.37	172.600
595.71	173.700
596.06	172.700
596.41	174.600
596.75	174.600
597.10	174.900
597.45	173.200
597.79	174.900
598.14	173.400
598.49	173.100
598.83	173.400
599.18	173.800
599.52	172.900
599.87	173.000
600.22	174.900
600.56	173.600
600.91	174.100
601.26	173.000
601.60	172.800
601.95	174.100
602.29	174.400
602.64	172.800
602.99	173.200
603.33	173.800
603.68	172.900
604.02	173.200
604.37	172.300
604.71	173.600
605.06	173.000
605.41	172.800
605.75	172.200
606.10	174.200
606.44	173.900
606.79	171.800
607.13	172.900
607.48	172.800
607.82	173.600
608.17	174.000
608.51	174.400
608.86	173.900
609.20	173.500
609.55	173.500
609.89	173.600
610.24	175.400
610.58	173.500
610.93	176.700
611.27	175.000
611.62	174.000
611.96	176.300
612.31	173.700
612.65	176.000
613.00	174.000
613.34	173.600
613.69	173.900
614.03	174.900
614.37	174.400
614.72	174.600
615.06	173.900
615.41	176.300
615.75	174.000
616.10	173.100
616.44	174.400
616.78	172.400
617.13	172.600
617.47	174.500
617.82	174.300
618.16	174.400
618.50	174.100
618.85	174.500
619.19	173.500
619.53	174.400
619.88	174.200
620.22	173.400
620.56	171.900
620.91	172.600
621.25	172.400
621.59	173.200
621.94	173.600
622.28	173.100
622.62	173.300
622.97	174.800
623.31	173.300
623.65	174.000
624.00	173.500
624.34	173.300
624.68	175.400
625.03	172.600
625.37	174.100
625.71	173.200
626.05	173.500
626.40	172.900
626.74	173.000
627.08	174.800
627.42	173.700
627.77	173.600
628.11	173.700
628.45	173.700
628.79	173.300
629.14	173.500
629.48	172.500
629.82	174.100
630.16	173.600
630.50	173.700
630.85	174.500
631.19	172.500
631.53	173.400
631.87	173.100
632.21	172.200
632.56	173.200
632.90	173.000
633.24	172.800
633.58	174.200
633.92	172.600
634.26	172.700
634.61	173.000
634.95	174.800
635.29	172.900
635.63	174.300
635.97	172.800
636.31	173.500
636.65	174.400
637.00	173.400
637.34	172.200
637.68	174.000
638.02	173.400
638.36	171.900
638.70	172.000
639.04	173.500
639.38	174.100
639.72	173.800
640.06	172.300
640.40	174.500
640.75	174.900
641.09	173.400
641.43	173.000
641.77	173.200
642.11	173.800
642.45	173.200
642.79	173.700
643.13	172.400
643.47	172.600
643.81	173.500
644.15	173.400
644.49	173.600
644.83	172.800
645.17	173.600
645.51	173.700
645.85	171.600
646.19	173.400
646.53	172.300
646.87	173.900
647.21	173.200
647.55	172.300
647.89	172.500
648.23	171.000
648.57	173.400
648.91	172.900
649.25	172.800
649.59	173.500
649.92	173.100
650.26	173.400
650.60	172.700
650.94	173.200
651.28	174.100
651.62	173.700
651.96	171.900
652.30	174.300
652.64	173.300
652.98	172.800
653.32	174.600
653.65	173.400
653.99	173.100
654.33	172.200
654.67	173.000
655.01	173.800
655.35	173.500
655.69	173.400
656.02	172.200
656.36	172.000
656.70	173.700
657.04	171.900
657.38	172.700
657.72	173.000
658.05	173.200
658.39	174.200
658.73	172.900
659.07	172.500
659.41	173.900
659.74	174.100
660.08	171.400
660.42	172.600
660.76	172.200
661.10	173.600
661.43	172.600
661.77	173.700
662.11	171.300
662.45	175.100
662.78	172.700
663.12	174.100
663.46	173.800
663.80	173.200
664.13	171.800
664.47	172.600
664.81	173.300
665.14	172.400
665.48	173.100
665.82	175.700
666.16	174.100
666.49	173.100
666.83	174.500
667.17	173.200
667.50	172.900
667.84	171.800
668.18	173.000
668.51	174.100
668.85	173.200
669.19	173.000
669.52	173.000
669.86	173.200
670.20	174.800
670.53	173.700
670.87	174.100
671.20	173.700
671.54	173.800
671.88	173.900
672.21	174.300
672.55	172.300
672.88	172.600
673.22	173.100
673.56	172.900
673.89	173.600
674.23	172.700
674.56	172.800
674.90	173.000
675.24	174.500
675.57	173.800
675.91	174.400
676.24	172.300
676.58	174.100
676.91	172.900
677.25	172.900
677.58	173.200
677.92	172.600
678.25	172.700
678.59	174.200
678.92	172.000
679.26	174.800
679.59	173.200
679.93	172.000
680.26	174.600
680.60	173.000
680.93	171.700
681.27	174.400
681.60	174.000
681.94	172.300
682.27	174.400
682.61	173.500
682.94	173.800
683.28	172.800
683.61	174.400
683.94	172.900
684.28	174.000
684.61	173.000
684.95	173.700
685.28	173.900
685.62	173.700
685.95	173.500
686.28	173.700
686.62	173.100
686.95	174.300
687.29	172.200
687.62	173.200
687.95	172.100
688.29	173.000
688.62	173.000
688.95	174.000
689.29	172.600
689.62	175.400
689.95	172.700
690.29	173.900
690.62	173.400
690.95	174.800
691.29	173.200
691.62	173.600
691.95	173.200
692.29	172.900
692.62	174.000
692.95	173.200
693.29	173.000
693.62	173.000
693.95	171.300
694.28	172.800
694.62	172.300
694.95	173.600
695.28	174.300
695.61	174.200
695.95	172.300
696.28	172.700
696.61	173.500
696.94	171.600
697.28	174.100
697.61	175.300
697.94	173.200
698.27	173.900
698.61	171.100
698.94	173.000
699.27	173.000
699.60	173.800
699.93	173.400
700.27	173.700
700.60	174.000
700.93	172.300
701.26	172.300
701.59	174.700
701.92	172.900
702.26	173.600
702.59	172.800
702.92	175.000
703.25	172.800
703.58	173.700
703.91	173.000
704.24	174.600
704.58	173.000
704.91	174.000
705.24	174.800
705.57	173.600
705.90	172.900
706.23	173.500
706.56	172.400
706.89	172.900
707.22	173.700
707.55	174.900
707.88	173.400
708.22	172.400
708.55	173.600
708.88	172.100
709.21	173.600
709.54	174.900
709.87	173.700
710.20	173.000
710.53	173.800
710.86	173.500
711.19	173.500
711.52	174.600
711.85	173.500
712.18	174.400
712.51	174.000
712.84	171.900
713.17	174.300
713.50	175.200
713.83	173.500
714.16	173.500
714.49	173.400
714.82	173.200
715.15	173.500
715.48	173.300
715.81	171.700
716.14	174.200
716.46	173.200
716.79	174.200
717.12	173.200
717.45	173.000
717.78	174.900
718.11	174.300
718.44	172.600
718.77	173.700
719.10	173.800
719.43	173.900
719.76	173.000
720.08	173.500
720.41	174.100
720.74	172.600
721.07	172.700
721.40	173.500
721.73	175.200
722.06	172.000
722.38	174.000
722.71	173.600
723.04	173.700
723.37	172.700
723.70	172.500
724.03	171.400
724.35	174.600
724.68	174.200
725.01	174.400
725.34	173.700
725.67	173.300
725.99	174.000
726.32	173.600
726.65	174.300
726.98	173.200
727.31	172.900
727.63	173.900
727.96	173.600
728.29	174.700
728.62	174.700
728.94	173.500
729.27	173.900
729.60	175.200
729.92	173.400
730.25	174.700
730.58	174.300
730.91	173.800
731.23	174.800
731.56	175.100
731.89	174.100
732.21	175.800
732.54	174.800
732.87	175.200
733.19	174.000
733.52	175.200
733.85	175.000
734.17	176.200
734.50	174.600
734.83	175.800
735.15	174.300
735.48	175.600
735.81	175.100
736.13	175.800
736.46	174.900
736.78	174.600
737.11	175.400
737.44	175.700
737.76	175.800
738.09	175.000
738.41	175.100
738.74	175.200
739.07	175.100
739.39	175.100
739.72	175.700
740.04	176.100
740.37	174.900
740.69	175.700
741.02	176.800
741.35	175.200
741.67	174.400
742.00	176.600
742.32	176.700
742.65	175.800
742.97	178.400
743.30	178.000
743.62	176.700
743.95	177.800
744.27	178.900
744.60	178.300
744.92	180.500
745.25	179.800
745.57	181.600
745.90	181.700
746.22	182.700
746.54	184.000
746.87	184.800
747.19	185.600
747.52	187.100
747.84	188.600
748.17	187.200
748.49	189.200
748.82	191.400
749.14	191.100
749.46	193.300
749.79	194.800
750.11	195.400
750.44	198.200
750.76	199.800
751.08	202.700
751.41	203.600
751.73	203.700
752.05	208.500
752.38	207.800
752.70	210.600
753.03	213.600
753.35	215.700
753.67	219.100
754.00	222.000
754.32	226.700
754.64	230.700
754.97	232.700
755.29	235.100
755.61	237.800
755.93	240.600
756.26	242.100
756.58	245.400
756.90	252.100
757.23	257.700
757.55	258.500
757.87	264.000
758.19	267.100
758.52	271.100
758.84	275.100
759.16	284.800
759.48	285.800
759.81	290.600
760.13	291.800
760.45	294.100
760.77	299.300
761.10	307.300
761.42	313.700
761.74	320.900
762.06	322.500
762.38	325.500
762.71	336.100
763.03	341.200
763.35	345.200
763.67	346.900
763.99	358.700
764.32	361.300
764.64	370.800
764.96	372.500
765.28	371.200
765.60	377.100
765.92	386.000
766.24	390.500
766.57	393.400
766.89	403.800
767.21	405.800
767.53	412.100
767.85	415.200
